S05587
27-06-2016_13:27:22
Saved at time: 7686955 milliseconds
Integration time: 4000000
Scans to average: 0
Boxcar smoothing: 0
Wavelengths	Intensities
337.35134888	1863.00000000
337.80362194	1912.00000000
338.25595141	1985.00000000
338.70833725	1936.00000000
339.16077942	1851.00000000
339.61327788	1795.00000000
340.06583261	1903.00000000
340.51844356	1652.00000000
340.97111069	1719.00000000
341.42383397	1670.00000000
341.87661336	1578.00000000
342.32944883	1710.00000000
342.78234033	1716.00000000
343.23528784	1793.00000000
343.68829131	1936.00000000
344.14135070	1792.00000000
344.59446599	1879.00000000
345.04763714	1750.00000000
345.50086410	1672.00000000
345.95414684	1938.00000000
346.40748532	1785.00000000
346.86087951	1782.00000000
347.31432937	1876.00000000
347.76783486	1953.00000000
348.22139595	1811.00000000
348.67501260	1803.00000000
349.12868478	1878.00000000
349.58241244	1770.00000000
350.03619554	1898.00000000
350.49003406	1839.00000000
350.94392796	1819.00000000
351.39787720	1692.00000000
351.85188173	1808.00000000
352.30594153	1655.00000000
352.76005657	1765.00000000
353.21422679	1653.00000000
353.66845217	1868.00000000
354.12273266	1681.00000000
354.57706824	1724.00000000
355.03145886	1781.00000000
355.48590449	1839.00000000
355.94040509	1863.00000000
356.39496062	1794.00000000
356.84957105	1795.00000000
357.30423634	1874.00000000
357.75895646	1875.00000000
358.21373136	1755.00000000
358.66856102	1642.00000000
359.12344538	1847.00000000
359.57838442	1860.00000000
360.03337811	1561.00000000
360.48842639	1852.00000000
360.94352924	1616.00000000
361.39868662	1830.00000000
361.85389850	1824.00000000
362.30916483	1835.00000000
362.76448558	1889.00000000
363.21986071	1652.00000000
363.67529018	1738.00000000
364.13077397	1883.00000000
364.58631202	1885.00000000
365.04190431	1722.00000000
365.49755080	1630.00000000
365.95325145	1919.00000000
366.40900623	1655.00000000
366.86481509	1867.00000000
367.32067801	1921.00000000
367.77659494	1859.00000000
368.23256584	1903.00000000
368.68859069	1834.00000000
369.14466944	1725.00000000
369.60080206	1849.00000000
370.05698851	1716.00000000
370.51322875	1530.00000000
370.96952275	1686.00000000
371.42587047	1924.00000000
371.88227187	1935.00000000
372.33872691	1922.00000000
372.79523557	1703.00000000
373.25179780	1641.00000000
373.70841357	1820.00000000
374.16508283	1811.00000000
374.62180556	1849.00000000
375.07858171	1901.00000000
375.53541125	1907.00000000
375.99229415	1904.00000000
376.44923035	1579.00000000
376.90621984	1721.00000000
377.36326257	1879.00000000
377.82035850	1722.00000000
378.27750760	1760.00000000
378.73470984	882.00000000
379.19196516	1734.00000000
379.64927355	1891.00000000
380.10663495	1430.00000000
380.56404934	1727.00000000
381.02151668	1790.00000000
381.47903693	1929.00000000
381.93661005	1758.00000000
382.39423600	1676.00000000
382.85191476	1870.00000000
383.30964628	1752.00000000
383.76743053	1738.00000000
384.22526746	1789.00000000
384.68315705	1664.00000000
385.14109926	1891.00000000
385.59909404	1780.00000000
386.05714137	1806.00000000
386.51524120	1814.00000000
386.97339351	1756.00000000
387.43159824	1766.00000000
387.88985537	1839.00000000
388.34816486	1859.00000000
388.80652667	1789.00000000
389.26494076	1881.00000000
389.72340710	1838.00000000
390.18192566	1843.00000000
390.64049638	1803.00000000
391.09911925	1870.00000000
391.55779422	1655.00000000
392.01652125	1880.00000000
392.47530030	1825.00000000
392.93413135	1356.00000000
393.39301436	1940.00000000
393.85194927	1866.00000000
394.31093607	1600.00000000
394.76997472	1802.00000000
395.22906517	1722.00000000
395.68820739	1609.00000000
396.14740134	1887.00000000
396.60664699	1993.00000000
397.06594429	1744.00000000
397.52529322	1910.00000000
397.98469374	1875.00000000
398.44414581	1828.00000000
398.90364938	1628.00000000
399.36320444	1912.00000000
399.82281093	1844.00000000
400.28246882	1812.00000000
400.74217808	1972.00000000
401.20193867	1763.00000000
401.66175054	1839.00000000
402.12161368	1944.00000000
402.58152803	1855.00000000
403.04149356	1821.00000000
403.50151023	2074.00000000
403.96157802	2083.00000000
404.42169687	2019.00000000
404.88186676	1789.00000000
405.34208764	1744.00000000
405.80235949	1865.00000000
406.26268226	1724.00000000
406.72305591	1764.00000000
407.18348042	1950.00000000
407.64395574	1984.00000000
408.10448183	1884.00000000
408.56505866	1621.00000000
409.02568620	1720.00000000
409.48636440	1700.00000000
409.94709324	1805.00000000
410.40787266	1759.00000000
410.86870264	1597.00000000
411.32958314	1857.00000000
411.79051412	1760.00000000
412.25149554	1403.00000000
412.71252738	1607.00000000
413.17360958	1829.00000000
413.63474212	1849.00000000
414.09592496	1901.00000000
414.55715806	2010.00000000
415.01844138	1759.00000000
415.47977490	1734.00000000
415.94115856	1919.00000000
416.40259233	1964.00000000
416.86407619	1619.00000000
417.32561008	1659.00000000
417.78719398	1895.00000000
418.24882784	1746.00000000
418.71051164	1972.00000000
419.17224533	1671.00000000
419.63402887	1952.00000000
420.09586223	1913.00000000
420.55774538	1803.00000000
421.01967827	1782.00000000
421.48166087	1873.00000000
421.94369315	1685.00000000
422.40577506	1912.00000000
422.86790657	1776.00000000
423.33008764	1366.00000000
423.79231823	1928.00000000
424.25459832	1950.00000000
424.71692786	1734.00000000
425.17930681	1852.00000000
425.64173514	1788.00000000
426.10421281	1865.00000000
426.56673978	1701.00000000
427.02931602	1492.00000000
427.49194150	1848.00000000
427.95461617	1970.00000000
428.41733999	1948.00000000
428.88011294	1955.00000000
429.34293497	1966.00000000
429.80580604	1633.00000000
430.26872613	1862.00000000
430.73169519	1978.00000000
431.19471319	1896.00000000
431.65778008	1845.00000000
432.12089584	1867.00000000
432.58406043	1896.00000000
433.04727380	1400.00000000
433.51053593	1773.00000000
433.97384677	2071.00000000
434.43720630	2096.00000000
434.90061446	2453.00000000
435.36407123	3277.00000000
435.82757657	2855.00000000
436.29113044	1996.00000000
436.75473281	2003.00000000
437.21838363	1953.00000000
437.68208288	1898.00000000
438.14583051	2093.00000000
438.60962648	1830.00000000
439.07347077	1885.00000000
439.53736333	2031.00000000
440.00130413	1882.00000000
440.46529314	2058.00000000
440.92933030	1947.00000000
441.39341559	1703.00000000
441.85754898	1920.00000000
442.32173041	1957.00000000
442.78595986	2003.00000000
443.25023730	1862.00000000
443.71456267	1844.00000000
444.17893595	2062.00000000
444.64335711	2091.00000000
445.10782609	1707.00000000
445.57234287	1926.00000000
446.03690741	1979.00000000
446.50151967	1813.00000000
446.96617962	1930.00000000
447.43088721	1852.00000000
447.89564242	2033.00000000
448.36044520	2079.00000000
448.82529553	1978.00000000
449.29019335	2096.00000000
449.75513864	1854.00000000
450.22013135	2055.00000000
450.68517146	1972.00000000
451.15025892	1839.00000000
451.61539370	1842.00000000
452.08057576	2054.00000000
452.54580506	2073.00000000
453.01108157	2011.00000000
453.47640525	2064.00000000
453.94177607	1888.00000000
454.40719398	1974.00000000
454.87265895	1895.00000000
455.33817095	1929.00000000
455.80372993	1923.00000000
456.26933586	1964.00000000
456.73498870	1892.00000000
457.20068842	2078.00000000
457.66643498	2034.00000000
458.13222835	1519.00000000
458.59806847	1102.00000000
459.06395533	1855.00000000
459.52988888	1770.00000000
459.99586908	2044.00000000
460.46189590	2067.00000000
460.92796931	1751.00000000
461.39408926	2022.00000000
461.86025571	1843.00000000
462.32646864	1982.00000000
462.79272800	1968.00000000
463.25903377	2071.00000000
463.72538589	2050.00000000
464.19178433	1930.00000000
464.65822906	1814.00000000
465.12472005	1961.00000000
465.59125725	1958.00000000
466.05784062	2028.00000000
466.52447013	1961.00000000
466.99114575	1852.00000000
467.45786744	1935.00000000
467.92463515	1904.00000000
468.39144886	1915.00000000
468.85830852	1798.00000000
469.32521410	1911.00000000
469.79216557	1997.00000000
470.25916288	1886.00000000
470.72620600	1951.00000000
471.19329489	1818.00000000
471.66042952	1885.00000000
472.12760985	1959.00000000
472.59483583	1910.00000000
473.06210745	1865.00000000
473.52942465	2016.00000000
473.99678740	2117.00000000
474.46419567	1681.00000000
474.93164941	1893.00000000
475.39914860	1920.00000000
475.86669319	1720.00000000
476.33428315	2036.00000000
476.80191844	1879.00000000
477.26959902	1974.00000000
477.73732486	1805.00000000
478.20509592	1858.00000000
478.67291216	1922.00000000
479.14077355	1947.00000000
479.60868006	1889.00000000
480.07663163	1950.00000000
480.54462824	1758.00000000
481.01266985	1958.00000000
481.48075642	1908.00000000
481.94888792	2027.00000000
482.41706430	1859.00000000
482.88528554	1974.00000000
483.35355160	1978.00000000
483.82186243	2115.00000000
484.29021801	2192.00000000
484.75861829	2101.00000000
485.22706324	2077.00000000
485.69555282	2282.00000000
486.16408699	2213.00000000
486.63266573	2168.00000000
487.10128898	2142.00000000
487.56995672	2283.00000000
488.03866891	2228.00000000
488.50742551	2067.00000000
488.97622648	2041.00000000
489.44507179	1734.00000000
489.91396139	1964.00000000
490.38289527	1837.00000000
490.85187337	2141.00000000
491.32089566	2155.00000000
491.78996210	2181.00000000
492.25907266	1958.00000000
492.72822730	1356.00000000
493.19742598	2052.00000000
493.66666867	2038.00000000
494.13595533	2055.00000000
494.60528591	1972.00000000
495.07466040	2068.00000000
495.54407874	1927.00000000
496.01354091	1980.00000000
496.48304686	1912.00000000
496.95259656	1973.00000000
497.42218997	2040.00000000
497.89182706	1744.00000000
498.36150779	1959.00000000
498.83123211	1906.00000000
499.30100000	1866.00000000
499.77081142	1981.00000000
500.24066633	1991.00000000
500.71056469	1838.00000000
501.18050648	1854.00000000
501.65049164	1977.00000000
502.12052014	1945.00000000
502.59059195	1955.00000000
503.06070704	1843.00000000
503.53086535	1603.00000000
504.00106686	1429.00000000
504.47131154	1853.00000000
504.94159933	1832.00000000
505.41193021	1747.00000000
505.88230414	1963.00000000
506.35272109	1992.00000000
506.82318101	2016.00000000
507.29368386	1893.00000000
507.76422962	2009.00000000
508.23481825	1957.00000000
508.70544970	1823.00000000
509.17612395	1794.00000000
509.64684095	1933.00000000
510.11760067	1972.00000000
510.58840307	1989.00000000
511.05924812	1926.00000000
511.53013577	2000.00000000
512.00106600	1928.00000000
512.47203875	2028.00000000
512.94305401	1884.00000000
513.41411173	1886.00000000
513.88521187	1960.00000000
514.35635440	1922.00000000
514.82753927	1724.00000000
515.29876647	1778.00000000
515.77003593	1921.00000000
516.24134764	1711.00000000
516.71270155	1919.00000000
517.18409763	1959.00000000
517.65553584	1957.00000000
518.12701614	1877.00000000
518.59853850	1995.00000000
519.07010287	1575.00000000
519.54170923	1906.00000000
520.01335753	1654.00000000
520.48504774	1876.00000000
520.95677983	1913.00000000
521.42855375	1798.00000000
521.90036946	1820.00000000
522.37222694	1791.00000000
522.84412615	1820.00000000
523.31606704	1905.00000000
523.78804958	1878.00000000
524.26007374	1867.00000000
524.73213947	1868.00000000
525.20424675	1874.00000000
525.67639553	1849.00000000
526.14858578	1977.00000000
526.62081745	1714.00000000
527.09309052	1861.00000000
527.56540495	1970.00000000
528.03776070	1849.00000000
528.51015773	1840.00000000
528.98259601	1937.00000000
529.45507550	1773.00000000
529.92759616	1913.00000000
530.40015795	1836.00000000
530.87276085	1872.00000000
531.34540481	1934.00000000
531.81808979	1840.00000000
532.29081576	1814.00000000
532.76358269	1945.00000000
533.23639053	1891.00000000
533.70923924	1778.00000000
534.18212880	1934.00000000
534.65505917	2021.00000000
535.12803030	1990.00000000
535.60104217	2007.00000000
536.07409473	1983.00000000
536.54718794	1991.00000000
537.02032178	2057.00000000
537.49349620	1058.00000000
537.96671117	2196.00000000
538.43996665	2324.00000000
538.91326261	2308.00000000
539.38659900	2193.00000000
539.85997579	2814.00000000
540.33339294	3202.00000000
540.80685042	3439.00000000
541.28034819	4230.00000000
541.75388622	4395.00000000
542.22746446	3836.00000000
542.70108287	3606.00000000
543.17474144	3715.00000000
543.64844010	3739.00000000
544.12217884	3507.00000000
544.59595761	3650.00000000
545.06977637	4110.00000000
545.54363510	5018.00000000
546.01753374	5213.00000000
546.49147227	4081.00000000
546.96545065	3479.00000000
547.43946884	3263.00000000
547.91352680	3009.00000000
548.38762450	2790.00000000
548.86176191	2441.00000000
549.33593897	2758.00000000
549.81015567	2339.00000000
550.28441195	2390.00000000
550.75870779	2374.00000000
551.23304315	1811.00000000
551.70741799	2375.00000000
552.18183227	2271.00000000
552.65628595	2175.00000000
553.13077901	2069.00000000
553.60531140	1948.00000000
554.07988309	2031.00000000
554.55449403	1978.00000000
555.02914420	2021.00000000
555.50383356	2104.00000000
555.97856206	2016.00000000
556.45332968	1764.00000000
556.92813637	1649.00000000
557.40298210	1831.00000000
557.87786683	1801.00000000
558.35279053	1852.00000000
558.82775315	1700.00000000
559.30275467	1935.00000000
559.77779504	1884.00000000
560.25287423	1851.00000000
560.72799221	1616.00000000
561.20314892	2021.00000000
561.67834435	1785.00000000
562.15357844	1875.00000000
562.62885117	1834.00000000
563.10416249	1942.00000000
563.57951238	1830.00000000
564.05490079	1812.00000000
564.53032769	1833.00000000
565.00579303	1982.00000000
565.48129679	1768.00000000
565.95683893	1954.00000000
566.43241940	1913.00000000
566.90803818	1684.00000000
567.38369523	1923.00000000
567.85939050	1690.00000000
568.33512397	1900.00000000
568.81089559	1943.00000000
569.28670533	1988.00000000
569.76255316	1925.00000000
570.23843902	1826.00000000
570.71436290	1902.00000000
571.19032475	1930.00000000
571.66632453	1909.00000000
572.14236222	1913.00000000
572.61843776	1876.00000000
573.09455113	1638.00000000
573.57070228	1873.00000000
574.04689119	1872.00000000
574.52311781	1814.00000000
574.99938211	1757.00000000
575.47568405	1977.00000000
575.95202359	1989.00000000
576.42840070	1464.00000000
576.90481534	2195.00000000
577.38126747	1823.00000000
577.85775706	2023.00000000
578.33428407	2120.00000000
578.81084846	2215.00000000
579.28745020	2088.00000000
579.76408925	1951.00000000
580.24076557	2175.00000000
580.71747912	1692.00000000
581.19422988	2085.00000000
581.67101780	2046.00000000
582.14784284	2253.00000000
582.62470497	2151.00000000
583.10160416	2213.00000000
583.57854035	2256.00000000
584.05551353	1999.00000000
584.53252365	2274.00000000
585.00957067	2229.00000000
585.48665456	2189.00000000
585.96377529	2247.00000000
586.44093280	2345.00000000
586.91812708	2267.00000000
587.39535807	2453.00000000
587.87262575	2233.00000000
588.34993007	2046.00000000
588.82727101	1888.00000000
589.30464852	2045.00000000
589.78206256	2118.00000000
590.25951311	2168.00000000
590.73700012	2077.00000000
591.21452355	1973.00000000
591.69208338	1915.00000000
592.16967956	2222.00000000
592.64731205	2045.00000000
593.12498082	2159.00000000
593.60268584	2262.00000000
594.08042706	1975.00000000
594.55820445	2031.00000000
595.03601797	1743.00000000
595.51386759	1957.00000000
595.99175326	2057.00000000
596.46967496	1792.00000000
596.94763264	1944.00000000
597.42562627	1911.00000000
597.90365581	1717.00000000
598.38172122	1848.00000000
598.85982248	1990.00000000
599.33795953	1721.00000000
599.81613235	1585.00000000
600.29434089	1907.00000000
600.77258513	1602.00000000
601.25086501	2073.00000000
601.72918052	1897.00000000
602.20753161	1966.00000000
602.68591823	1920.00000000
603.16434037	1914.00000000
603.64279797	1684.00000000
604.12129101	1789.00000000
604.59981945	1867.00000000
605.07838324	1966.00000000
605.55698236	1879.00000000
606.03561676	1774.00000000
606.51428641	2009.00000000
606.99299127	1938.00000000
607.47173131	1892.00000000
607.95050648	1998.00000000
608.42931676	2187.00000000
608.90816210	2242.00000000
609.38704248	2309.00000000
609.86595784	2539.00000000
610.34490816	2883.00000000
610.82389339	3954.00000000
611.30291351	4292.00000000
611.78196847	4045.00000000
612.26105823	3135.00000000
612.74018277	2911.00000000
613.21934204	2718.00000000
613.69853601	2697.00000000
614.17776464	2320.00000000
614.65702789	2547.00000000
615.13632573	2347.00000000
615.61565812	2273.00000000
616.09502502	2385.00000000
616.57442640	2105.00000000
617.05386221	1553.00000000
617.53333243	1864.00000000
618.01283702	1815.00000000
618.49237593	2087.00000000
618.97194914	2151.00000000
619.45155660	1902.00000000
619.93119828	2265.00000000
620.41087415	2153.00000000
620.89058415	2118.00000000
621.37032827	2029.00000000
621.85010646	2100.00000000
622.32991868	2000.00000000
622.80976490	2037.00000000
623.28964508	2100.00000000
623.76955919	2063.00000000
624.24950718	2095.00000000
624.72948902	2218.00000000
625.20950468	2163.00000000
625.68955412	1986.00000000
626.16963729	1843.00000000
626.64975417	2093.00000000
627.12990471	2071.00000000
627.61008889	1847.00000000
628.09030666	2144.00000000
628.57055798	1864.00000000
629.05084283	2100.00000000
629.53116115	2085.00000000
630.01151293	2048.00000000
630.49189811	2039.00000000
630.97231666	2069.00000000
631.45276855	2100.00000000
631.93325374	2029.00000000
632.41377219	1839.00000000
632.89432387	1685.00000000
633.37490873	1919.00000000
633.85552675	1821.00000000
634.33617788	1941.00000000
634.81686209	1787.00000000
635.29757934	1914.00000000
635.77832959	1872.00000000
636.25911281	1876.00000000
636.73992897	1918.00000000
637.22077801	1415.00000000
637.70165992	1976.00000000
638.18257464	1878.00000000
638.66352215	1784.00000000
639.14450240	1888.00000000
639.62551537	1801.00000000
640.10656101	1940.00000000
640.58763928	1825.00000000
641.06875016	1814.00000000
641.54989359	1928.00000000
642.03106956	1828.00000000
642.51227801	1945.00000000
642.99351892	1967.00000000
643.47479224	1280.00000000
643.95609794	1916.00000000
644.43743598	1707.00000000
644.91880633	1878.00000000
645.40020894	1817.00000000
645.88164379	1732.00000000
646.36311083	1951.00000000
646.84461003	1920.00000000
647.32614135	1885.00000000
647.80770476	1932.00000000
648.28930022	1955.00000000
648.77092768	1820.00000000
649.25258712	1676.00000000
649.73427850	1769.00000000
650.21600177	1763.00000000
650.69775691	1947.00000000
651.17954388	1869.00000000
651.66136264	1780.00000000
652.14321315	1939.00000000
652.62509538	1897.00000000
653.10700929	1714.00000000
653.58895484	1821.00000000
654.07093200	1970.00000000
654.55294072	1939.00000000
655.03498098	1923.00000000
655.51705274	1735.00000000
655.99915595	1813.00000000
656.48129059	1858.00000000
656.96345661	1734.00000000
657.44565398	1810.00000000
657.92788266	1819.00000000
658.41014262	1834.00000000
658.89243382	1828.00000000
659.37475621	1735.00000000
659.85710978	1810.00000000
660.33949447	1845.00000000
660.82191025	1731.00000000
661.30435708	1862.00000000
661.78683493	1827.00000000
662.26934377	1804.00000000
662.75188354	1934.00000000
663.23445423	1539.00000000
663.71705578	1749.00000000
664.19968817	1923.00000000
664.68235136	1860.00000000
665.16504530	1816.00000000
665.64776997	1721.00000000
666.13052532	1791.00000000
666.61331133	1793.00000000
667.09612794	1688.00000000
667.57897514	1869.00000000
668.06185287	1833.00000000
668.54476110	1726.00000000
669.02769980	1640.00000000
669.51066893	1766.00000000
669.99366845	1883.00000000
670.47669833	1828.00000000
670.95975852	1951.00000000
671.44284900	1789.00000000
671.92596972	1613.00000000
672.40912065	1873.00000000
672.89230175	1917.00000000
673.37551298	1767.00000000
673.85875431	1940.00000000
674.34202570	1789.00000000
674.82532712	1764.00000000
675.30865852	1816.00000000
675.79201988	1774.00000000
676.27541115	1824.00000000
676.75883229	1802.00000000
677.24228328	1920.00000000
677.72576406	1831.00000000
678.20927462	1948.00000000
678.69281490	1461.00000000
679.17638488	1665.00000000
679.65998451	1809.00000000
680.14361377	1846.00000000
680.62727260	1892.00000000
681.11096098	1763.00000000
681.59467887	1766.00000000
682.07842623	1744.00000000
