S05587
28-06-2016_07:55:23
Saved at time: 74168091 milliseconds
Integration time: 4000000
Scans to average: 0
Boxcar smoothing: 0
Wavelengths	Intensities
337.35134888	1807.00000000
337.80362194	1850.00000000
338.25595141	1902.00000000
338.70833725	1859.00000000
339.16077942	1805.00000000
339.61327788	1756.00000000
340.06583261	1843.00000000
340.51844356	1634.00000000
340.97111069	1675.00000000
341.42383397	1645.00000000
341.87661336	1561.00000000
342.32944883	1679.00000000
342.78234033	1680.00000000
343.23528784	1751.00000000
343.68829131	1855.00000000
344.14135070	1751.00000000
344.59446599	1828.00000000
345.04763714	1708.00000000
345.50086410	1655.00000000
345.95414684	1866.00000000
346.40748532	1742.00000000
346.86087951	1740.00000000
347.31432937	1805.00000000
347.76783486	1877.00000000
348.22139595	1760.00000000
348.67501260	1752.00000000
349.12868478	1818.00000000
349.58241244	1727.00000000
350.03619554	1832.00000000
350.49003406	1791.00000000
350.94392796	1769.00000000
351.39787720	1666.00000000
351.85188173	1753.00000000
352.30594153	1634.00000000
352.76005657	1727.00000000
353.21422679	1637.00000000
353.66845217	1803.00000000
354.12273266	1660.00000000
354.57706824	1697.00000000
355.03145886	1737.00000000
355.48590449	1785.00000000
355.94040509	1807.00000000
356.39496062	1745.00000000
356.84957105	1752.00000000
357.30423634	1813.00000000
357.75895646	1812.00000000
358.21373136	1719.00000000
358.66856102	1630.00000000
359.12344538	1795.00000000
359.57838442	1808.00000000
360.03337811	1554.00000000
360.48842639	1800.00000000
360.94352924	1601.00000000
361.39868662	1776.00000000
361.85389850	1773.00000000
362.30916483	1790.00000000
362.76448558	1828.00000000
363.21986071	1636.00000000
363.67529018	1695.00000000
364.13077397	1811.00000000
364.58631202	1804.00000000
365.04190431	1672.00000000
365.49755080	1611.00000000
365.95325145	1849.00000000
366.40900623	1654.00000000
366.86481509	1803.00000000
367.32067801	1856.00000000
367.77659494	1796.00000000
368.23256584	1842.00000000
368.68859069	1779.00000000
369.14466944	1684.00000000
369.60080206	1798.00000000
370.05698851	1682.00000000
370.51322875	1531.00000000
370.96952275	1665.00000000
371.42587047	1858.00000000
371.88227187	1863.00000000
372.33872691	1844.00000000
372.79523557	1664.00000000
373.25179780	1629.00000000
373.70841357	1769.00000000
374.16508283	1766.00000000
374.62180556	1788.00000000
375.07858171	1829.00000000
375.53541125	1840.00000000
375.99229415	1828.00000000
376.44923035	1567.00000000
376.90621984	1686.00000000
377.36326257	1815.00000000
377.82035850	1685.00000000
378.27750760	1699.00000000
378.73470984	931.00000000
379.19196516	1699.00000000
379.64927355	1825.00000000
380.10663495	1438.00000000
380.56404934	1688.00000000
381.02151668	1749.00000000
381.47903693	1851.00000000
381.93661005	1717.00000000
382.39423600	1650.00000000
382.85191476	1810.00000000
383.30964628	1704.00000000
383.76743053	1702.00000000
384.22526746	1743.00000000
384.68315705	1650.00000000
385.14109926	1820.00000000
385.59909404	1738.00000000
386.05714137	1760.00000000
386.51524120	1763.00000000
386.97339351	1718.00000000
387.43159824	1718.00000000
387.88985537	1783.00000000
388.34816486	1802.00000000
388.80652667	1741.00000000
389.26494076	1810.00000000
389.72340710	1783.00000000
390.18192566	1784.00000000
390.64049638	1757.00000000
391.09911925	1805.00000000
391.55779422	1636.00000000
392.01652125	1814.00000000
392.47530030	1766.00000000
392.93413135	1401.00000000
393.39301436	1867.00000000
393.85194927	1802.00000000
394.31093607	1580.00000000
394.76997472	1754.00000000
395.22906517	1688.00000000
395.68820739	1592.00000000
396.14740134	1823.00000000
396.60664699	1905.00000000
397.06594429	1712.00000000
397.52529322	1839.00000000
397.98469374	1810.00000000
398.44414581	1773.00000000
398.90364938	1613.00000000
399.36320444	1839.00000000
399.82281093	1787.00000000
400.28246882	1759.00000000
400.74217808	1891.00000000
401.20193867	1727.00000000
401.66175054	1781.00000000
402.12161368	1858.00000000
402.58152803	1787.00000000
403.04149356	1745.00000000
403.50151023	1884.00000000
403.96157802	1824.00000000
404.42169687	1795.00000000
404.88186676	1710.00000000
405.34208764	1694.00000000
405.80235949	1795.00000000
406.26268226	1682.00000000
406.72305591	1707.00000000
407.18348042	1855.00000000
407.64395574	1888.00000000
408.10448183	1808.00000000
408.56505866	1599.00000000
409.02568620	1683.00000000
409.48636440	1660.00000000
409.94709324	1752.00000000
410.40787266	1709.00000000
410.86870264	1569.00000000
411.32958314	1790.00000000
411.79051412	1708.00000000
412.25149554	1407.00000000
412.71252738	1577.00000000
413.17360958	1757.00000000
413.63474212	1781.00000000
414.09592496	1816.00000000
414.55715806	1899.00000000
415.01844138	1703.00000000
415.47977490	1679.00000000
415.94115856	1833.00000000
416.40259233	1863.00000000
416.86407619	1581.00000000
417.32561008	1614.00000000
417.78719398	1808.00000000
418.24882784	1681.00000000
418.71051164	1868.00000000
419.17224533	1617.00000000
419.63402887	1846.00000000
420.09586223	1818.00000000
420.55774538	1724.00000000
421.01967827	1705.00000000
421.48166087	1780.00000000
421.94369315	1628.00000000
422.40577506	1805.00000000
422.86790657	1690.00000000
423.33008764	1377.00000000
423.79231823	1811.00000000
424.25459832	1827.00000000
424.71692786	1647.00000000
425.17930681	1750.00000000
425.64173514	1695.00000000
426.10421281	1756.00000000
426.56673978	1631.00000000
427.02931602	1445.00000000
427.49194150	1741.00000000
427.95461617	1834.00000000
428.41733999	1824.00000000
428.88011294	1832.00000000
429.34293497	1828.00000000
429.80580604	1549.00000000
430.26872613	1739.00000000
430.73169519	1837.00000000
431.19471319	1765.00000000
431.65778008	1710.00000000
432.12089584	1740.00000000
432.58406043	1761.00000000
433.04727380	1324.00000000
433.51053593	1610.00000000
433.97384677	1833.00000000
434.43720630	1705.00000000
434.90061446	1482.00000000
435.36407123	1844.00000000
435.82757657	1939.00000000
436.29113044	1721.00000000
436.75473281	1793.00000000
437.21838363	1765.00000000
437.68208288	1716.00000000
438.14583051	1891.00000000
438.60962648	1691.00000000
439.07347077	1728.00000000
439.53736333	1848.00000000
440.00130413	1731.00000000
440.46529314	1869.00000000
440.92933030	1781.00000000
441.39341559	1581.00000000
441.85754898	1756.00000000
442.32173041	1785.00000000
442.78595986	1817.00000000
443.25023730	1709.00000000
443.71456267	1684.00000000
444.17893595	1861.00000000
444.64335711	1872.00000000
445.10782609	1575.00000000
445.57234287	1740.00000000
446.03690741	1785.00000000
446.50151967	1646.00000000
446.96617962	1735.00000000
447.43088721	1674.00000000
447.89564242	1822.00000000
448.36044520	1861.00000000
448.82529553	1782.00000000
449.29019335	1858.00000000
449.75513864	1677.00000000
450.22013135	1837.00000000
450.68517146	1779.00000000
451.15025892	1662.00000000
451.61539370	1668.00000000
452.08057576	1845.00000000
452.54580506	1856.00000000
453.01108157	1805.00000000
453.47640525	1852.00000000
453.94177607	1697.00000000
454.40719398	1778.00000000
454.87265895	1724.00000000
455.33817095	1736.00000000
455.80372993	1729.00000000
456.26933586	1767.00000000
456.73498870	1713.00000000
457.20068842	1862.00000000
457.66643498	1820.00000000
458.13222835	1403.00000000
458.59806847	1057.00000000
459.06395533	1675.00000000
459.52988888	1619.00000000
459.99586908	1833.00000000
460.46189590	1855.00000000
460.92796931	1595.00000000
461.39408926	1830.00000000
461.86025571	1683.00000000
462.32646864	1796.00000000
462.79272800	1787.00000000
463.25903377	1871.00000000
463.72538589	1850.00000000
464.19178433	1753.00000000
464.65822906	1668.00000000
465.12472005	1794.00000000
465.59125725	1791.00000000
466.05784062	1839.00000000
466.52447013	1777.00000000
466.99114575	1708.00000000
467.45786744	1774.00000000
467.92463515	1744.00000000
468.39144886	1752.00000000
468.85830852	1664.00000000
469.32521410	1765.00000000
469.79216557	1832.00000000
470.25916288	1752.00000000
470.72620600	1787.00000000
471.19329489	1677.00000000
471.66042952	1739.00000000
472.12760985	1797.00000000
472.59483583	1754.00000000
473.06210745	1718.00000000
473.52942465	1837.00000000
473.99678740	1917.00000000
474.46419567	1553.00000000
474.93164941	1738.00000000
475.39914860	1766.00000000
475.86669319	1605.00000000
476.33428315	1865.00000000
476.80191844	1736.00000000
477.26959902	1817.00000000
477.73732486	1675.00000000
478.20509592	1718.00000000
478.67291216	1763.00000000
479.14077355	1780.00000000
479.60868006	1729.00000000
480.07663163	1777.00000000
480.54462824	1627.00000000
481.01266985	1778.00000000
481.48075642	1730.00000000
481.94888792	1817.00000000
482.41706430	1672.00000000
482.88528554	1738.00000000
483.35355160	1716.00000000
483.82186243	1812.00000000
484.29021801	1850.00000000
484.75861829	1747.00000000
485.22706324	1698.00000000
485.69555282	1836.00000000
486.16408699	1748.00000000
486.63266573	1706.00000000
487.10128898	1704.00000000
487.56995672	1819.00000000
488.03866891	1794.00000000
488.50742551	1678.00000000
488.97622648	1664.00000000
489.44507179	1412.00000000
489.91396139	1622.00000000
490.38289527	1528.00000000
490.85187337	1779.00000000
491.32089566	1800.00000000
491.78996210	1828.00000000
492.25907266	1657.00000000
492.72822730	1168.00000000
493.19742598	1755.00000000
493.66666867	1756.00000000
494.13595533	1784.00000000
494.60528591	1717.00000000
495.07466040	1807.00000000
495.54407874	1697.00000000
496.01354091	1758.00000000
496.48304686	1703.00000000
496.95259656	1760.00000000
497.42218997	1819.00000000
497.89182706	1578.00000000
498.36150779	1777.00000000
498.83123211	1738.00000000
499.30100000	1703.00000000
499.77081142	1811.00000000
500.24066633	1825.00000000
500.71056469	1702.00000000
501.18050648	1717.00000000
501.65049164	1826.00000000
502.12052014	1800.00000000
502.59059195	1817.00000000
503.06070704	1730.00000000
503.53086535	1537.00000000
504.00106686	1382.00000000
504.47131154	1742.00000000
504.94159933	1718.00000000
505.41193021	1656.00000000
505.88230414	1837.00000000
506.35272109	1859.00000000
506.82318101	1883.00000000
507.29368386	1788.00000000
507.76422962	1875.00000000
508.23481825	1832.00000000
508.70544970	1727.00000000
509.17612395	1701.00000000
509.64684095	1820.00000000
510.11760067	1852.00000000
510.58840307	1870.00000000
511.05924812	1813.00000000
511.53013577	1878.00000000
512.00106600	1818.00000000
512.47203875	1905.00000000
512.94305401	1786.00000000
513.41411173	1788.00000000
513.88521187	1851.00000000
514.35635440	1814.00000000
514.82753927	1653.00000000
515.29876647	1705.00000000
515.77003593	1824.00000000
516.24134764	1636.00000000
516.71270155	1819.00000000
517.18409763	1857.00000000
517.65553584	1846.00000000
518.12701614	1790.00000000
518.59853850	1882.00000000
519.07010287	1536.00000000
519.54170923	1805.00000000
520.01335753	1604.00000000
520.48504774	1789.00000000
520.95677983	1811.00000000
521.42855375	1712.00000000
521.90036946	1738.00000000
522.37222694	1714.00000000
522.84412615	1738.00000000
523.31606704	1806.00000000
523.78804958	1787.00000000
524.26007374	1778.00000000
524.73213947	1786.00000000
525.20424675	1779.00000000
525.67639553	1760.00000000
526.14858578	1860.00000000
526.62081745	1652.00000000
527.09309052	1773.00000000
527.56540495	1859.00000000
528.03776070	1759.00000000
528.51015773	1748.00000000
528.98259601	1827.00000000
529.45507550	1699.00000000
529.92759616	1807.00000000
530.40015795	1734.00000000
530.87276085	1778.00000000
531.34540481	1816.00000000
531.81808979	1732.00000000
532.29081576	1710.00000000
532.76358269	1799.00000000
533.23639053	1734.00000000
533.70923924	1652.00000000
534.18212880	1786.00000000
534.65505917	1849.00000000
535.12803030	1813.00000000
535.60104217	1817.00000000
536.07409473	1782.00000000
536.54718794	1756.00000000
537.02032178	1755.00000000
537.49349620	865.00000000
537.96671117	1771.00000000
538.43996665	1830.00000000
538.91326261	1733.00000000
539.38659900	1507.00000000
539.85997579	1809.00000000
540.33339294	1851.00000000
540.80685042	1602.00000000
541.28034819	1805.00000000
541.75388622	1855.00000000
542.22746446	1777.00000000
542.70108287	1855.00000000
543.17474144	1877.00000000
543.64844010	1843.00000000
544.12217884	1653.00000000
544.59595761	1764.00000000
545.06977637	1886.00000000
545.54363510	1861.00000000
546.01753374	1854.00000000
546.49147227	1791.00000000
546.96545065	1854.00000000
547.43946884	1841.00000000
547.91352680	1738.00000000
548.38762450	1688.00000000
548.86176191	1510.00000000
549.33593897	1859.00000000
549.81015567	1609.00000000
550.28441195	1709.00000000
550.75870779	1774.00000000
551.23304315	1327.00000000
551.70741799	1876.00000000
552.18183227	1841.00000000
552.65628595	1790.00000000
553.13077901	1740.00000000
553.60531140	1673.00000000
554.07988309	1762.00000000
554.55449403	1749.00000000
555.02914420	1802.00000000
555.50383356	1876.00000000
555.97856206	1823.00000000
556.45332968	1630.00000000
556.92813637	1540.00000000
557.40298210	1693.00000000
557.87786683	1673.00000000
558.35279053	1713.00000000
558.82775315	1608.00000000
559.30275467	1809.00000000
559.77779504	1769.00000000
560.25287423	1737.00000000
560.72799221	1542.00000000
561.20314892	1882.00000000
561.67834435	1688.00000000
562.15357844	1763.00000000
562.62885117	1731.00000000
563.10416249	1823.00000000
563.57951238	1723.00000000
564.05490079	1723.00000000
564.53032769	1745.00000000
565.00579303	1864.00000000
565.48129679	1685.00000000
565.95683893	1845.00000000
566.43241940	1813.00000000
566.90803818	1607.00000000
567.38369523	1816.00000000
567.85939050	1624.00000000
568.33512397	1803.00000000
568.81089559	1833.00000000
569.28670533	1866.00000000
569.76255316	1818.00000000
570.23843902	1741.00000000
570.71436290	1807.00000000
571.19032475	1825.00000000
571.66632453	1815.00000000
572.14236222	1812.00000000
572.61843776	1783.00000000
573.09455113	1593.00000000
573.57070228	1775.00000000
574.04689119	1777.00000000
574.52311781	1728.00000000
574.99938211	1675.00000000
575.47568405	1848.00000000
575.95202359	1820.00000000
576.42840070	1289.00000000
576.90481534	1818.00000000
577.38126747	1581.00000000
577.85775706	1812.00000000
578.33428407	1837.00000000
578.81084846	1831.00000000
579.28745020	1743.00000000
579.76408925	1675.00000000
580.24076557	1848.00000000
580.71747912	1450.00000000
581.19422988	1788.00000000
581.67101780	1724.00000000
582.14784284	1845.00000000
582.62470497	1727.00000000
583.10160416	1748.00000000
583.57854035	1778.00000000
584.05551353	1560.00000000
584.53252365	1807.00000000
585.00957067	1784.00000000
585.48665456	1776.00000000
585.96377529	1832.00000000
586.44093280	1889.00000000
586.91812708	1754.00000000
587.39535807	1892.00000000
587.87262575	1785.00000000
588.34993007	1702.00000000
588.82727101	1619.00000000
589.30464852	1771.00000000
589.78206256	1826.00000000
590.25951311	1869.00000000
590.73700012	1792.00000000
591.21452355	1700.00000000
591.69208338	1629.00000000
592.16967956	1858.00000000
592.64731205	1672.00000000
593.12498082	1760.00000000
593.60268584	1894.00000000
594.08042706	1713.00000000
594.55820445	1787.00000000
595.03601797	1566.00000000
595.51386759	1755.00000000
595.99175326	1845.00000000
596.46967496	1630.00000000
596.94763264	1758.00000000
597.42562627	1730.00000000
597.90365581	1571.00000000
598.38172122	1656.00000000
598.85982248	1743.00000000
599.33795953	1512.00000000
599.81613235	1416.00000000
600.29434089	1698.00000000
600.77258513	1451.00000000
601.25086501	1871.00000000
601.72918052	1744.00000000
602.20753161	1807.00000000
602.68591823	1773.00000000
603.16434037	1778.00000000
603.64279797	1594.00000000
604.12129101	1670.00000000
604.59981945	1720.00000000
605.07838324	1796.00000000
605.55698236	1732.00000000
606.03561676	1637.00000000
606.51428641	1822.00000000
606.99299127	1746.00000000
607.47173131	1689.00000000
607.95050648	1755.00000000
608.42931676	1876.00000000
608.90816210	1858.00000000
609.38704248	1828.00000000
609.86595784	1837.00000000
610.34490816	1678.00000000
610.82389339	1865.00000000
611.30291351	1695.00000000
611.78196847	1844.00000000
612.26105823	1694.00000000
612.74018277	1810.00000000
613.21934204	1784.00000000
613.69853601	1845.00000000
614.17776464	1593.00000000
614.65702789	1839.00000000
615.13632573	1718.00000000
615.61565812	1760.00000000
616.09502502	1918.00000000
616.57442640	1743.00000000
617.05386221	1326.00000000
617.53333243	1591.00000000
618.01283702	1572.00000000
618.49237593	1794.00000000
618.97194914	1841.00000000
619.45155660	1623.00000000
619.93119828	1912.00000000
620.41087415	1810.00000000
620.89058415	1764.00000000
621.37032827	1695.00000000
621.85010646	1764.00000000
622.32991868	1668.00000000
622.80976490	1700.00000000
623.28964508	1741.00000000
623.76955919	1711.00000000
624.24950718	1739.00000000
624.72948902	1840.00000000
625.20950468	1796.00000000
625.68955412	1653.00000000
626.16963729	1543.00000000
626.64975417	1755.00000000
627.12990471	1761.00000000
627.61008889	1591.00000000
628.09030666	1846.00000000
628.57055798	1634.00000000
629.05084283	1828.00000000
629.53116115	1808.00000000
630.01151293	1754.00000000
630.49189811	1699.00000000
630.97231666	1681.00000000
631.45276855	1739.00000000
631.93325374	1764.00000000
632.41377219	1667.00000000
632.89432387	1573.00000000
633.37490873	1765.00000000
633.85552675	1702.00000000
634.33617788	1811.00000000
634.81686209	1680.00000000
635.29757934	1794.00000000
635.77832959	1752.00000000
636.25911281	1761.00000000
636.73992897	1800.00000000
637.22077801	1382.00000000
637.70165992	1850.00000000
638.18257464	1780.00000000
638.66352215	1703.00000000
639.14450240	1784.00000000
639.62551537	1709.00000000
640.10656101	1826.00000000
640.58763928	1729.00000000
641.06875016	1727.00000000
641.54989359	1815.00000000
642.03106956	1735.00000000
642.51227801	1827.00000000
642.99351892	1850.00000000
643.47479224	1256.00000000
643.95609794	1779.00000000
644.43743598	1635.00000000
644.91880633	1777.00000000
645.40020894	1723.00000000
645.88164379	1657.00000000
646.36311083	1830.00000000
646.84461003	1806.00000000
647.32614135	1794.00000000
647.80770476	1814.00000000
648.28930022	1837.00000000
648.77092768	1728.00000000
649.25258712	1599.00000000
649.73427850	1655.00000000
650.21600177	1638.00000000
650.69775691	1778.00000000
651.17954388	1729.00000000
651.66136264	1664.00000000
652.14321315	1804.00000000
652.62509538	1771.00000000
653.10700929	1618.00000000
653.58895484	1700.00000000
654.07093200	1846.00000000
654.55294072	1816.00000000
655.03498098	1804.00000000
655.51705274	1659.00000000
655.99915595	1713.00000000
656.48129059	1765.00000000
656.96345661	1656.00000000
657.44565398	1717.00000000
657.92788266	1712.00000000
658.41014262	1737.00000000
658.89243382	1740.00000000
659.37475621	1664.00000000
659.85710978	1722.00000000
660.33949447	1759.00000000
660.82191025	1670.00000000
661.30435708	1768.00000000
661.78683493	1735.00000000
662.26934377	1702.00000000
662.75188354	1810.00000000
663.23445423	1493.00000000
663.71705578	1660.00000000
664.19968817	1817.00000000
664.68235136	1763.00000000
665.16504530	1734.00000000
665.64776997	1648.00000000
666.13052532	1723.00000000
666.61331133	1719.00000000
667.09612794	1630.00000000
667.57897514	1780.00000000
668.06185287	1743.00000000
668.54476110	1666.00000000
669.02769980	1590.00000000
669.51066893	1697.00000000
669.99366845	1794.00000000
670.47669833	1743.00000000
670.95975852	1840.00000000
671.44284900	1714.00000000
671.92596972	1567.00000000
672.40912065	1781.00000000
672.89230175	1818.00000000
673.37551298	1707.00000000
673.85875431	1838.00000000
674.34202570	1716.00000000
674.82532712	1702.00000000
675.30865852	1747.00000000
675.79201988	1693.00000000
676.27541115	1764.00000000
676.75883229	1732.00000000
677.24228328	1813.00000000
677.72576406	1755.00000000
678.20927462	1842.00000000
678.69281490	1444.00000000
679.17638488	1615.00000000
679.65998451	1730.00000000
680.14361377	1753.00000000
680.62727260	1790.00000000
681.11096098	1689.00000000
681.59467887	1686.00000000
682.07842623	1670.00000000
