S05587
28-06-2016_12:07:05
Saved at time: 89270121 milliseconds
Integration time: 4000000
Scans to average: 0
Boxcar smoothing: 0
Wavelengths	Intensities
337.35134888	1821.00000000
337.80362194	1869.00000000
338.25595141	1931.00000000
338.70833725	1891.00000000
339.16077942	1822.00000000
339.61327788	1772.00000000
340.06583261	1860.00000000
340.51844356	1638.00000000
340.97111069	1685.00000000
341.42383397	1649.00000000
341.87661336	1565.00000000
342.32944883	1688.00000000
342.78234033	1696.00000000
343.23528784	1765.00000000
343.68829131	1880.00000000
344.14135070	1766.00000000
344.59446599	1844.00000000
345.04763714	1721.00000000
345.50086410	1660.00000000
345.95414684	1895.00000000
346.40748532	1752.00000000
346.86087951	1756.00000000
347.31432937	1832.00000000
347.76783486	1900.00000000
348.22139595	1782.00000000
348.67501260	1775.00000000
349.12868478	1844.00000000
349.58241244	1744.00000000
350.03619554	1854.00000000
350.49003406	1800.00000000
350.94392796	1786.00000000
351.39787720	1668.00000000
351.85188173	1768.00000000
352.30594153	1642.00000000
352.76005657	1742.00000000
353.21422679	1639.00000000
353.66845217	1822.00000000
354.12273266	1665.00000000
354.57706824	1701.00000000
355.03145886	1753.00000000
355.48590449	1806.00000000
355.94040509	1820.00000000
356.39496062	1766.00000000
356.84957105	1766.00000000
357.30423634	1834.00000000
357.75895646	1839.00000000
358.21373136	1732.00000000
358.66856102	1635.00000000
359.12344538	1810.00000000
359.57838442	1824.00000000
360.03337811	1552.00000000
360.48842639	1817.00000000
360.94352924	1601.00000000
361.39868662	1793.00000000
361.85389850	1790.00000000
362.30916483	1803.00000000
362.76448558	1845.00000000
363.21986071	1644.00000000
363.67529018	1708.00000000
364.13077397	1825.00000000
364.58631202	1830.00000000
365.04190431	1678.00000000
365.49755080	1610.00000000
365.95325145	1878.00000000
366.40900623	1663.00000000
366.86481509	1823.00000000
367.32067801	1875.00000000
367.77659494	1814.00000000
368.23256584	1863.00000000
368.68859069	1797.00000000
369.14466944	1693.00000000
369.60080206	1817.00000000
370.05698851	1689.00000000
370.51322875	1525.00000000
370.96952275	1671.00000000
371.42587047	1880.00000000
371.88227187	1890.00000000
372.33872691	1873.00000000
372.79523557	1676.00000000
373.25179780	1627.00000000
373.70841357	1784.00000000
374.16508283	1777.00000000
374.62180556	1808.00000000
375.07858171	1850.00000000
375.53541125	1859.00000000
375.99229415	1851.00000000
376.44923035	1566.00000000
376.90621984	1697.00000000
377.36326257	1840.00000000
377.82035850	1700.00000000
378.27750760	1724.00000000
378.73470984	911.00000000
379.19196516	1714.00000000
379.64927355	1845.00000000
380.10663495	1433.00000000
380.56404934	1701.00000000
381.02151668	1765.00000000
381.47903693	1879.00000000
381.93661005	1732.00000000
382.39423600	1655.00000000
382.85191476	1836.00000000
383.30964628	1719.00000000
383.76743053	1711.00000000
384.22526746	1764.00000000
384.68315705	1647.00000000
385.14109926	1842.00000000
385.59909404	1753.00000000
386.05714137	1777.00000000
386.51524120	1785.00000000
386.97339351	1733.00000000
387.43159824	1732.00000000
387.88985537	1802.00000000
388.34816486	1821.00000000
388.80652667	1749.00000000
389.26494076	1825.00000000
389.72340710	1807.00000000
390.18192566	1806.00000000
390.64049638	1767.00000000
391.09911925	1825.00000000
391.55779422	1639.00000000
392.01652125	1840.00000000
392.47530030	1787.00000000
392.93413135	1379.00000000
393.39301436	1892.00000000
393.85194927	1827.00000000
394.31093607	1585.00000000
394.76997472	1769.00000000
395.22906517	1702.00000000
395.68820739	1594.00000000
396.14740134	1845.00000000
396.60664699	1941.00000000
397.06594429	1720.00000000
397.52529322	1860.00000000
397.98469374	1838.00000000
398.44414581	1785.00000000
398.90364938	1621.00000000
399.36320444	1860.00000000
399.82281093	1804.00000000
400.28246882	1773.00000000
400.74217808	1913.00000000
401.20193867	1742.00000000
401.66175054	1800.00000000
402.12161368	1882.00000000
402.58152803	1809.00000000
403.04149356	1760.00000000
403.50151023	1914.00000000
403.96157802	1847.00000000
404.42169687	1821.00000000
404.88186676	1715.00000000
405.34208764	1703.00000000
405.80235949	1821.00000000
406.26268226	1688.00000000
406.72305591	1719.00000000
407.18348042	1878.00000000
407.64395574	1914.00000000
408.10448183	1831.00000000
408.56505866	1605.00000000
409.02568620	1696.00000000
409.48636440	1669.00000000
409.94709324	1765.00000000
410.40787266	1727.00000000
410.86870264	1571.00000000
411.32958314	1810.00000000
411.79051412	1725.00000000
412.25149554	1401.00000000
412.71252738	1580.00000000
413.17360958	1781.00000000
413.63474212	1793.00000000
414.09592496	1841.00000000
414.55715806	1926.00000000
415.01844138	1707.00000000
415.47977490	1691.00000000
415.94115856	1860.00000000
416.40259233	1888.00000000
416.86407619	1583.00000000
417.32561008	1622.00000000
417.78719398	1821.00000000
418.24882784	1694.00000000
418.71051164	1895.00000000
419.17224533	1625.00000000
419.63402887	1869.00000000
420.09586223	1840.00000000
420.55774538	1740.00000000
421.01967827	1718.00000000
421.48166087	1792.00000000
421.94369315	1633.00000000
422.40577506	1826.00000000
422.86790657	1706.00000000
423.33008764	1350.00000000
423.79231823	1836.00000000
424.25459832	1847.00000000
424.71692786	1655.00000000
425.17930681	1763.00000000
425.64173514	1703.00000000
426.10421281	1769.00000000
426.56673978	1629.00000000
427.02931602	1437.00000000
427.49194150	1744.00000000
427.95461617	1857.00000000
428.41733999	1846.00000000
428.88011294	1847.00000000
429.34293497	1855.00000000
429.80580604	1556.00000000
430.26872613	1755.00000000
430.73169519	1854.00000000
431.19471319	1784.00000000
431.65778008	1730.00000000
432.12089584	1750.00000000
432.58406043	1777.00000000
433.04727380	1312.00000000
433.51053593	1623.00000000
433.97384677	1855.00000000
434.43720630	1719.00000000
434.90061446	1471.00000000
435.36407123	1886.00000000
435.82757657	1996.00000000
436.29113044	1733.00000000
436.75473281	1815.00000000
437.21838363	1786.00000000
437.68208288	1734.00000000
438.14583051	1919.00000000
438.60962648	1700.00000000
439.07347077	1742.00000000
439.53736333	1870.00000000
440.00130413	1756.00000000
440.46529314	1900.00000000
440.92933030	1796.00000000
441.39341559	1583.00000000
441.85754898	1769.00000000
442.32173041	1805.00000000
442.78595986	1844.00000000
443.25023730	1725.00000000
443.71456267	1694.00000000
444.17893595	1886.00000000
444.64335711	1905.00000000
445.10782609	1577.00000000
445.57234287	1759.00000000
446.03690741	1807.00000000
446.50151967	1651.00000000
446.96617962	1754.00000000
447.43088721	1690.00000000
447.89564242	1848.00000000
448.36044520	1886.00000000
448.82529553	1798.00000000
449.29019335	1895.00000000
449.75513864	1693.00000000
450.22013135	1862.00000000
450.68517146	1796.00000000
451.15025892	1670.00000000
451.61539370	1671.00000000
452.08057576	1863.00000000
452.54580506	1881.00000000
453.01108157	1829.00000000
453.47640525	1877.00000000
453.94177607	1710.00000000
454.40719398	1797.00000000
454.87265895	1733.00000000
455.33817095	1753.00000000
455.80372993	1743.00000000
456.26933586	1789.00000000
456.73498870	1728.00000000
457.20068842	1890.00000000
457.66643498	1855.00000000
458.13222835	1398.00000000
458.59806847	1022.00000000
459.06395533	1691.00000000
459.52988888	1623.00000000
459.99586908	1860.00000000
460.46189590	1888.00000000
460.92796931	1607.00000000
461.39408926	1854.00000000
461.86025571	1695.00000000
462.32646864	1814.00000000
462.79272800	1806.00000000
463.25903377	1900.00000000
463.72538589	1877.00000000
464.19178433	1776.00000000
464.65822906	1677.00000000
465.12472005	1811.00000000
465.59125725	1808.00000000
466.05784062	1867.00000000
466.52447013	1801.00000000
466.99114575	1715.00000000
467.45786744	1787.00000000
467.92463515	1762.00000000
468.39144886	1772.00000000
468.85830852	1674.00000000
469.32521410	1781.00000000
469.79216557	1850.00000000
470.25916288	1787.00000000
470.72620600	1815.00000000
471.19329489	1684.00000000
471.66042952	1756.00000000
472.12760985	1814.00000000
472.59483583	1771.00000000
473.06210745	1733.00000000
473.52942465	1862.00000000
473.99678740	1951.00000000
474.46419567	1557.00000000
474.93164941	1751.00000000
475.39914860	1786.00000000
475.86669319	1608.00000000
476.33428315	1891.00000000
476.80191844	1755.00000000
477.26959902	1833.00000000
477.73732486	1687.00000000
478.20509592	1730.00000000
478.67291216	1780.00000000
479.14077355	1801.00000000
479.60868006	1748.00000000
480.07663163	1804.00000000
480.54462824	1639.00000000
481.01266985	1798.00000000
481.48075642	1745.00000000
481.94888792	1842.00000000
482.41706430	1676.00000000
482.88528554	1756.00000000
483.35355160	1732.00000000
483.82186243	1836.00000000
484.29021801	1876.00000000
484.75861829	1763.00000000
485.22706324	1708.00000000
485.69555282	1862.00000000
486.16408699	1766.00000000
486.63266573	1723.00000000
487.10128898	1710.00000000
487.56995672	1846.00000000
488.03866891	1813.00000000
488.50742551	1688.00000000
488.97622648	1685.00000000
489.44507179	1406.00000000
489.91396139	1638.00000000
490.38289527	1527.00000000
490.85187337	1800.00000000
491.32089566	1828.00000000
491.78996210	1856.00000000
492.25907266	1670.00000000
492.72822730	1145.00000000
493.19742598	1777.00000000
493.66666867	1780.00000000
494.13595533	1805.00000000
494.60528591	1728.00000000
495.07466040	1830.00000000
495.54407874	1722.00000000
496.01354091	1774.00000000
496.48304686	1724.00000000
496.95259656	1775.00000000
497.42218997	1851.00000000
497.89182706	1586.00000000
498.36150779	1794.00000000
498.83123211	1750.00000000
499.30100000	1722.00000000
499.77081142	1836.00000000
500.24066633	1842.00000000
500.71056469	1717.00000000
501.18050648	1736.00000000
501.65049164	1852.00000000
502.12052014	1826.00000000
502.59059195	1842.00000000
503.06070704	1745.00000000
503.53086535	1536.00000000
504.00106686	1382.00000000
504.47131154	1758.00000000
504.94159933	1743.00000000
505.41193021	1670.00000000
505.88230414	1866.00000000
506.35272109	1893.00000000
506.82318101	1910.00000000
507.29368386	1805.00000000
507.76422962	1908.00000000
508.23481825	1863.00000000
508.70544970	1739.00000000
509.17612395	1711.00000000
509.64684095	1843.00000000
510.11760067	1876.00000000
510.58840307	1895.00000000
511.05924812	1836.00000000
511.53013577	1907.00000000
512.00106600	1844.00000000
512.47203875	1937.00000000
512.94305401	1812.00000000
513.41411173	1807.00000000
513.88521187	1881.00000000
514.35635440	1841.00000000
514.82753927	1662.00000000
515.29876647	1711.00000000
515.77003593	1848.00000000
516.24134764	1647.00000000
516.71270155	1845.00000000
517.18409763	1883.00000000
517.65553584	1871.00000000
518.12701614	1809.00000000
518.59853850	1908.00000000
519.07010287	1533.00000000
519.54170923	1828.00000000
520.01335753	1610.00000000
520.48504774	1806.00000000
520.95677983	1833.00000000
521.42855375	1733.00000000
521.90036946	1759.00000000
522.37222694	1727.00000000
522.84412615	1754.00000000
523.31606704	1825.00000000
523.78804958	1806.00000000
524.26007374	1799.00000000
524.73213947	1803.00000000
525.20424675	1801.00000000
525.67639553	1777.00000000
526.14858578	1887.00000000
526.62081745	1662.00000000
527.09309052	1792.00000000
527.56540495	1882.00000000
528.03776070	1778.00000000
528.51015773	1765.00000000
528.98259601	1855.00000000
529.45507550	1718.00000000
529.92759616	1829.00000000
530.40015795	1749.00000000
530.87276085	1795.00000000
531.34540481	1842.00000000
531.81808979	1746.00000000
532.29081576	1722.00000000
532.76358269	1819.00000000
533.23639053	1753.00000000
533.70923924	1659.00000000
534.18212880	1806.00000000
534.65505917	1878.00000000
535.12803030	1841.00000000
535.60104217	1842.00000000
536.07409473	1798.00000000
536.54718794	1771.00000000
537.02032178	1771.00000000
537.49349620	827.00000000
537.96671117	1794.00000000
538.43996665	1861.00000000
538.91326261	1758.00000000
539.38659900	1514.00000000
539.85997579	1839.00000000
540.33339294	1892.00000000
540.80685042	1629.00000000
541.28034819	1860.00000000
541.75388622	1922.00000000
542.22746446	1825.00000000
542.70108287	1900.00000000
543.17474144	1926.00000000
543.64844010	1892.00000000
544.12217884	1694.00000000
544.59595761	1804.00000000
545.06977637	1932.00000000
545.54363510	1925.00000000
546.01753374	1931.00000000
546.49147227	1849.00000000
546.96545065	1899.00000000
547.43946884	1883.00000000
547.91352680	1783.00000000
548.38762450	1720.00000000
548.86176191	1528.00000000
549.33593897	1897.00000000
549.81015567	1621.00000000
550.28441195	1738.00000000
550.75870779	1802.00000000
551.23304315	1337.00000000
551.70741799	1911.00000000
552.18183227	1867.00000000
552.65628595	1814.00000000
553.13077901	1762.00000000
553.60531140	1685.00000000
554.07988309	1786.00000000
554.55449403	1768.00000000
555.02914420	1828.00000000
555.50383356	1909.00000000
555.97856206	1847.00000000
556.45332968	1640.00000000
556.92813637	1543.00000000
557.40298210	1709.00000000
557.87786683	1684.00000000
558.35279053	1736.00000000
558.82775315	1608.00000000
559.30275467	1828.00000000
559.77779504	1782.00000000
560.25287423	1757.00000000
560.72799221	1543.00000000
561.20314892	1913.00000000
561.67834435	1699.00000000
562.15357844	1780.00000000
562.62885117	1746.00000000
563.10416249	1844.00000000
563.57951238	1746.00000000
564.05490079	1737.00000000
564.53032769	1756.00000000
565.00579303	1892.00000000
565.48129679	1705.00000000
565.95683893	1869.00000000
566.43241940	1832.00000000
566.90803818	1627.00000000
567.38369523	1842.00000000
567.85939050	1633.00000000
568.33512397	1825.00000000
568.81089559	1857.00000000
569.28670533	1900.00000000
569.76255316	1849.00000000
570.23843902	1757.00000000
570.71436290	1828.00000000
571.19032475	1851.00000000
571.66632453	1840.00000000
572.14236222	1841.00000000
572.61843776	1805.00000000
573.09455113	1590.00000000
573.57070228	1794.00000000
574.04689119	1800.00000000
574.52311781	1743.00000000
574.99938211	1685.00000000
575.47568405	1874.00000000
575.95202359	1846.00000000
576.42840070	1276.00000000
576.90481534	1848.00000000
577.38126747	1590.00000000
577.85775706	1838.00000000
578.33428407	1868.00000000
578.81084846	1861.00000000
579.28745020	1767.00000000
579.76408925	1690.00000000
580.24076557	1867.00000000
580.71747912	1451.00000000
581.19422988	1817.00000000
581.67101780	1747.00000000
582.14784284	1872.00000000
582.62470497	1743.00000000
583.10160416	1771.00000000
583.57854035	1794.00000000
584.05551353	1572.00000000
584.53252365	1838.00000000
585.00957067	1815.00000000
585.48665456	1808.00000000
585.96377529	1855.00000000
586.44093280	1923.00000000
586.91812708	1776.00000000
587.39535807	1933.00000000
587.87262575	1815.00000000
588.34993007	1722.00000000
588.82727101	1626.00000000
589.30464852	1785.00000000
589.78206256	1858.00000000
590.25951311	1902.00000000
590.73700012	1819.00000000
591.21452355	1741.00000000
591.69208338	1645.00000000
592.16967956	1890.00000000
592.64731205	1694.00000000
593.12498082	1788.00000000
593.60268584	1923.00000000
594.08042706	1726.00000000
594.55820445	1806.00000000
595.03601797	1570.00000000
595.51386759	1776.00000000
595.99175326	1871.00000000
596.46967496	1642.00000000
596.94763264	1781.00000000
597.42562627	1747.00000000
597.90365581	1571.00000000
598.38172122	1662.00000000
598.85982248	1777.00000000
599.33795953	1507.00000000
599.81613235	1404.00000000
600.29434089	1706.00000000
600.77258513	1450.00000000
601.25086501	1900.00000000
601.72918052	1758.00000000
602.20753161	1829.00000000
602.68591823	1789.00000000
603.16434037	1789.00000000
603.64279797	1594.00000000
604.12129101	1673.00000000
604.59981945	1736.00000000
605.07838324	1819.00000000
605.55698236	1736.00000000
606.03561676	1646.00000000
606.51428641	1843.00000000
606.99299127	1767.00000000
607.47173131	1707.00000000
607.95050648	1776.00000000
608.42931676	1904.00000000
608.90816210	1894.00000000
609.38704248	1855.00000000
609.86595784	1870.00000000
610.34490816	1707.00000000
610.82389339	1918.00000000
611.30291351	1757.00000000
611.78196847	1914.00000000
612.26105823	1730.00000000
612.74018277	1853.00000000
613.21934204	1813.00000000
613.69853601	1887.00000000
614.17776464	1613.00000000
614.65702789	1859.00000000
615.13632573	1750.00000000
615.61565812	1780.00000000
616.09502502	1963.00000000
616.57442640	1765.00000000
617.05386221	1305.00000000
617.53333243	1601.00000000
618.01283702	1569.00000000
618.49237593	1821.00000000
618.97194914	1873.00000000
619.45155660	1643.00000000
619.93119828	1941.00000000
620.41087415	1835.00000000
620.89058415	1790.00000000
621.37032827	1714.00000000
621.85010646	1779.00000000
622.32991868	1686.00000000
622.80976490	1723.00000000
623.28964508	1772.00000000
623.76955919	1731.00000000
624.24950718	1765.00000000
624.72948902	1871.00000000
625.20950468	1827.00000000
625.68955412	1673.00000000
626.16963729	1548.00000000
626.64975417	1785.00000000
627.12990471	1779.00000000
627.61008889	1605.00000000
628.09030666	1875.00000000
628.57055798	1643.00000000
629.05084283	1850.00000000
629.53116115	1832.00000000
630.01151293	1777.00000000
630.49189811	1718.00000000
630.97231666	1704.00000000
631.45276855	1758.00000000
631.93325374	1786.00000000
632.41377219	1678.00000000
632.89432387	1575.00000000
633.37490873	1787.00000000
633.85552675	1717.00000000
634.33617788	1829.00000000
634.81686209	1695.00000000
635.29757934	1813.00000000
635.77832959	1775.00000000
636.25911281	1785.00000000
636.73992897	1823.00000000
637.22077801	1370.00000000
637.70165992	1878.00000000
638.18257464	1798.00000000
638.66352215	1716.00000000
639.14450240	1801.00000000
639.62551537	1724.00000000
640.10656101	1851.00000000
640.58763928	1748.00000000
641.06875016	1737.00000000
641.54989359	1847.00000000
642.03106956	1750.00000000
642.51227801	1852.00000000
642.99351892	1872.00000000
643.47479224	1245.00000000
643.95609794	1795.00000000
644.43743598	1642.00000000
644.91880633	1796.00000000
645.40020894	1737.00000000
645.88164379	1673.00000000
646.36311083	1855.00000000
646.84461003	1829.00000000
647.32614135	1805.00000000
647.80770476	1840.00000000
648.28930022	1866.00000000
648.77092768	1745.00000000
649.25258712	1604.00000000
649.73427850	1666.00000000
650.21600177	1646.00000000
650.69775691	1803.00000000
651.17954388	1750.00000000
651.66136264	1679.00000000
652.14321315	1829.00000000
652.62509538	1793.00000000
653.10700929	1634.00000000
653.58895484	1721.00000000
654.07093200	1865.00000000
654.55294072	1837.00000000
655.03498098	1827.00000000
655.51705274	1668.00000000
655.99915595	1727.00000000
656.48129059	1779.00000000
656.96345661	1668.00000000
657.44565398	1737.00000000
657.92788266	1727.00000000
658.41014262	1753.00000000
658.89243382	1753.00000000
659.37475621	1673.00000000
659.85710978	1739.00000000
660.33949447	1774.00000000
660.82191025	1676.00000000
661.30435708	1783.00000000
661.78683493	1748.00000000
662.26934377	1719.00000000
662.75188354	1829.00000000
663.23445423	1485.00000000
663.71705578	1670.00000000
664.19968817	1842.00000000
664.68235136	1782.00000000
665.16504530	1748.00000000
665.64776997	1665.00000000
666.13052532	1730.00000000
666.61331133	1735.00000000
667.09612794	1640.00000000
667.57897514	1797.00000000
668.06185287	1759.00000000
668.54476110	1675.00000000
669.02769980	1592.00000000
669.51066893	1707.00000000
669.99366845	1812.00000000
670.47669833	1757.00000000
670.95975852	1868.00000000
671.44284900	1731.00000000
671.92596972	1575.00000000
672.40912065	1809.00000000
672.89230175	1845.00000000
673.37551298	1712.00000000
673.85875431	1864.00000000
674.34202570	1728.00000000
674.82532712	1708.00000000
675.30865852	1761.00000000
675.79201988	1713.00000000
676.27541115	1785.00000000
676.75883229	1748.00000000
677.24228328	1844.00000000
677.72576406	1760.00000000
678.20927462	1866.00000000
678.69281490	1440.00000000
679.17638488	1621.00000000
679.65998451	1752.00000000
680.14361377	1773.00000000
680.62727260	1815.00000000
681.11096098	1699.00000000
681.59467887	1702.00000000
682.07842623	1685.00000000
